Thorlabs Shack-Hartmann Wavefront Sensor

Model                  ,       WFS20-5C
Serial Number          ,       M00578372

Date MM-DD-YYYY        ,       07-16-2024
Time HH:MM:SS          ,       16:14:39


*** CAMERA ***
Camera Type            ,       Thorlabs WFS20
Camera SN              ,       742
Resolution X           ,       1440
Resolution Y           ,       1080
Exposure Time [ms]     ,       0.015
Master Gain            ,       1.000
Averages               ,       1
Average Type           ,       Normal


*** BEAM ***
Beam Center X [mm]     ,       0.136
Beam Center Y [mm]     ,       0.451
Beam Diameter X [mm]   ,       7.200
Beam Diameter Y [mm]   ,       5.375


*** PUPIL ***
Circular               ,       1
Use Beam Centroid      ,       0
Use Beam Dia           ,       0
Wavefront Calc In Pupil,       0
Pupil Diameter X [mm]  ,       5.304
Pupil Diameter Y [mm]  ,       5.304
Pupil Center X [mm]    ,       0.000
Pupil Center Y [mm]    ,       0.000


*** ZERNIKE FIT ***
Zernike Orders Auto    ,       0
Zernike Orders         ,       4
Zernike Modes          ,       15
Unit                   ,       µm
Index  Order  Frequency  Coefficient
   1,     0,     0,       -5.882
   2,     1,    -1,       -0.211
   3,     1,     1,        6.664
   4,     2,    -2,       -0.018
   5,     2,     0,       -0.622
   6,     2,     2,        0.033
   7,     3,    -3,       -0.002
   8,     3,    -1,        0.019
   9,     3,     1,        0.000
  10,     3,     3,        0.009
  11,     4,    -4,       -0.003
  12,     4,    -2,       -0.001
  13,     4,     0,        0.014
  14,     4,     2,       -0.002
  15,     4,     4,        0.001

Fit Error Mean [arcmin]  ,   6.059e-12
Fit Error StdDev [arcmin],   4.660e-04


*** RMS WAVEFRONT VARIATIONS ***
Unit                   ,       µm
Order  Variation
   0,      5.882
   1,      6.668
   2,      0.624
   3,      0.022
   4,      0.015


*** FOURIER NOTATION ***
Fourier Order          ,       2
Fourier M              ,       0.613
Fourier J0             ,      -0.023
Fourier J45            ,       0.013


*** OPTOMETRIC NOTATION ***
Optometric Sphere [dpt],       0.640
Optometric Cyl. [dpt]  ,      -0.053
Optometric Axis [deg]  ,      75.512

Radius of Curvature[mm],    1631.404


*** WAVEFRONT ***
Reference              ,       Internal Reference
Unit                   ,       µm
Wavelength [nm]        ,        633.000
Type                   ,       Measured
Calculation Area       ,       entire area
PV                     ,      36.910
RMS                    ,      10.340
RMS weighted           ,       9.019
Spots X                ,       47
Spots Y                ,       35
y / x [mm],    -3.450,    -3.300,    -3.150,    -3.000,    -2.850,    -2.700,    -2.550,    -2.400,    -2.250,    -2.100,    -1.950,    -1.800,    -1.650,    -1.500,    -1.350,    -1.200,    -1.050,    -0.900,    -0.750,    -0.600,    -0.450,    -0.300,    -0.150,     0.000,     0.150,     0.300,     0.450,     0.600,     0.750,     0.900,     1.050,     1.200,     1.350,     1.500,     1.650,     1.800,     1.950,     2.100,     2.250,     2.400,     2.550,     2.700,     2.850,     3.000,     3.150,     3.300,     3.450,
     2.550,   -21.674,   -20.782,   -19.887,   -18.997,   -18.108,   -17.220,   -16.328,   -15.435,   -14.548,   -13.667,   -12.783,   -11.908,   -11.040,   -10.171,    -9.317,    -8.456,    -7.595,    -6.736,    -5.881,    -5.028,    -4.178,    -3.332,    -2.491,    -1.651,    -0.820,    -0.014,     0.775,     1.530,     2.268,     2.997,     3.673,     4.341,     4.978,     5.594,     6.203,     6.788,     7.357,     7.907,     8.440,     8.964,     9.474,     9.975,    10.464,    10.941,    11.407,    11.866,    12.323,
     2.400,   -21.479,   -20.567,   -19.659,   -18.751,   -17.859,   -16.964,   -16.069,   -15.180,   -14.297,   -13.411,   -12.528,   -11.652,   -10.777,    -9.897,    -9.068,    -8.212,    -7.355,    -6.497,    -5.639,    -4.791,    -3.950,    -3.113,    -2.279,    -1.435,    -0.608,     0.188,     0.979,     1.729,     2.462,     3.176,     3.841,     4.501,     5.136,     5.745,     6.348,     6.934,     7.495,     8.038,     8.569,     9.095,     9.607,    10.104,    10.592,    11.066,    11.532,    11.991,    12.450,
     2.250,   -21.290,   -20.362,   -19.447,   -18.536,   -17.635,   -16.729,   -15.835,   -14.945,   -14.062,   -13.178,   -12.297,   -11.417,   -10.538,    -9.670,    -8.838,    -7.978,    -7.118,    -6.263,    -5.417,    -4.574,    -3.737,    -2.906,    -2.072,    -1.235,    -0.415,     0.371,     1.149,     1.900,     2.630,     3.328,     3.997,     4.649,     5.283,     5.893,     6.495,     7.078,     7.633,     8.177,     8.709,     9.234,     9.746,    10.239,    10.721,    11.193,    11.661,    12.122,    12.582,
     2.100,   -21.105,   -20.175,   -19.259,   -18.337,   -17.429,   -16.523,   -15.623,   -14.726,   -13.842,   -12.955,   -12.075,   -11.206,   -10.335,    -9.472,    -8.609,    -7.756,    -6.906,    -6.059,    -5.212,    -4.373,    -3.538,    -2.711,    -1.888,    -1.054,    -0.238,     0.540,     1.309,     2.056,     2.775,     3.466,     4.143,     4.792,     5.422,     6.034,     6.632,     7.207,     7.762,     8.305,     8.835,     9.359,     9.869,    10.360,    10.838,    11.313,    11.785,    12.247,    12.709,
     1.950,   -20.944,   -20.017,   -19.086,   -18.158,   -17.238,   -16.324,   -15.418,   -14.521,   -13.629,   -12.743,   -11.872,   -11.003,   -10.131,    -9.265,    -8.405,    -7.558,    -6.709,    -5.864,    -5.019,    -4.185,    -3.354,    -2.531,    -1.708,    -0.887,    -0.081,     0.700,     1.462,     2.209,     2.917,     3.597,     4.271,     4.914,     5.535,     6.143,     6.736,     7.310,     7.867,     8.408,     8.940,     9.463,     9.969,    10.464,    10.948,    11.424,    11.897,    12.363,    12.825,
     1.800,   -20.804,   -19.871,   -18.933,   -18.002,   -17.071,   -16.157,   -15.243,   -14.334,   -13.439,   -12.551,   -11.675,   -10.800,    -9.936,    -9.076,    -8.217,    -7.364,    -6.522,    -5.682,    -4.845,    -4.015,    -3.179,    -2.351,    -1.538,    -0.729,     0.071,     0.849,     1.609,     2.345,     3.050,     3.722,     4.385,     5.027,     5.651,     6.264,     6.851,     7.423,     7.980,     8.520,     9.049,     9.569,    10.078,    10.572,    11.059,    11.540,    12.020,    12.487,    12.953,
     1.650,   -20.683,   -19.740,   -18.799,   -17.866,   -16.934,   -16.007,   -15.081,   -14.173,   -13.273,   -12.377,   -11.499,   -10.622,    -9.752,    -8.890,    -8.036,    -7.190,    -6.351,    -5.513,    -4.675,    -3.845,    -3.016,    -2.191,    -1.384,    -0.583,     0.211,     0.991,     1.738,     2.453,     3.157,     3.845,     4.499,     5.140,     5.763,     6.369,     6.953,     7.521,     8.077,     8.621,     9.151,     9.668,    10.184,    10.683,    11.171,    11.657,    12.136,    12.603,    13.073,
     1.500,   -20.584,   -19.635,   -18.688,   -17.754,   -16.811,   -15.877,   -14.949,   -14.033,   -13.125,   -12.230,   -11.346,   -10.466,    -9.594,    -8.732,    -7.878,    -7.030,    -6.186,    -5.351,    -4.521,    -3.701,    -2.878,    -2.059,    -1.250,    -0.454,     0.338,     1.110,     1.844,     2.550,     3.246,     3.925,     4.588,     5.231,     5.854,     6.453,     7.038,     7.605,     8.162,     8.709,     9.241,     9.767,    10.285,    10.786,    11.271,    11.760,    12.241,    12.714,    13.185,
     1.350,   -20.512,   -19.546,   -18.593,   -17.649,   -16.704,   -15.769,   -14.835,   -13.913,   -13.003,   -12.099,   -11.202,   -10.322,    -9.449,    -8.577,    -7.725,    -6.876,    -6.036,    -5.209,    -4.384,    -3.565,    -2.746,    -1.935,    -1.132,    -0.339,     0.439,     1.208,     1.953,     2.660,     3.354,     4.021,     4.673,     5.316,     5.939,     6.533,     7.117,     7.689,     8.252,     8.801,     9.337,     9.861,    10.378,    10.889,    11.378,    11.868,    12.354,    12.829,    13.305,
     1.200,   -20.460,   -19.492,   -18.534,   -17.575,   -16.623,   -15.683,   -14.746,   -13.815,   -12.898,   -11.986,   -11.091,   -10.202,    -9.320,    -8.451,    -7.596,    -6.746,    -5.910,    -5.083,    -4.254,    -3.439,    -2.631,    -1.835,    -1.040,    -0.241,     0.541,     1.298,     2.053,     2.769,     3.456,     4.115,     4.758,     5.394,     6.016,     6.607,     7.192,     7.770,     8.337,     8.887,     9.424,     9.950,    10.471,    10.982,    11.478,    11.972,    12.459,    12.938,    13.418,
     1.050,   -20.433,   -19.456,   -18.494,   -17.535,   -16.570,   -15.623,   -14.680,   -13.743,   -12.821,   -11.904,   -11.004,   -10.107,    -9.221,    -8.353,    -7.495,    -6.642,    -5.808,    -4.981,    -4.153,    -3.343,    -2.539,    -1.744,    -0.950,    -0.154,     0.626,     1.380,     2.116,     2.821,     3.506,     4.166,     4.811,     5.452,     6.075,     6.666,     7.263,     7.847,     8.416,     8.968,     9.506,    10.035,    10.558,    11.069,    11.571,    12.069,    12.565,    13.048,    13.531,
     0.900,   -20.420,   -19.442,   -18.477,   -17.511,   -16.541,   -15.587,   -14.636,   -13.700,   -12.771,   -11.843,   -10.938,   -10.039,    -9.150,    -8.272,    -7.412,    -6.562,    -5.727,    -4.897,    -4.068,    -3.259,    -2.455,    -1.667,    -0.881,    -0.092,     0.680,     1.438,     2.162,     2.854,     3.535,     4.201,     4.854,     5.500,     6.119,     6.726,     7.333,     7.918,     8.491,     9.042,     9.581,    10.118,    10.643,    11.159,    11.670,    12.169,    12.670,    13.158,    13.640,
     0.750,   -20.427,   -19.448,   -18.472,   -17.507,   -16.536,   -15.570,   -14.614,   -13.671,   -12.736,   -11.804,   -10.894,    -9.986,    -9.091,    -8.211,    -7.353,    -6.502,    -5.659,    -4.820,    -3.992,    -3.186,    -2.389,    -1.609,    -0.827,    -0.052,     0.732,     1.481,     2.194,     2.886,     3.567,     4.235,     4.891,     5.537,     6.161,     6.776,     7.381,     7.966,     8.542,     9.098,     9.645,    10.186,    10.712,    11.232,    11.747,    12.257,    12.760,    13.251,    13.740,
     0.600,   -20.460,   -19.480,   -18.498,   -17.524,   -16.547,   -15.582,   -14.616,   -13.664,   -12.725,   -11.794,   -10.872,    -9.961,    -9.063,    -8.176,    -7.311,    -6.453,    -5.607,    -4.767,    -3.942,    -3.134,    -2.339,    -1.559,    -0.777,    -0.007,     0.769,     1.511,     2.221,     2.917,     3.597,     4.264,     4.920,     5.569,     6.197,     6.819,     7.426,     8.015,     8.589,     9.151,     9.708,    10.249,    10.782,    11.305,    11.827,    12.341,    12.850,    13.352,    13.846,
     0.450,   -20.516,   -19.532,   -18.544,   -17.561,   -16.587,   -15.619,   -14.647,   -13.692,   -12.744,   -11.805,   -10.879,    -9.965,    -9.063,    -8.169,    -7.291,    -6.433,    -5.588,    -4.748,    -3.917,    -3.105,    -2.306,    -1.521,    -0.744,     0.022,     0.781,     1.525,     2.238,     2.940,     3.623,     4.293,     4.952,     5.603,     6.233,     6.857,     7.470,     8.063,     8.642,     9.209,     9.766,    10.315,    10.858,    11.387,    11.914,    12.432,    12.949,    13.455,    13.955,
     0.300,   -20.593,   -19.607,   -18.610,   -17.628,   -16.647,   -15.670,   -14.704,   -13.742,   -12.789,   -11.849,   -10.915,    -9.994,    -9.085,    -8.187,    -7.305,    -6.438,    -5.583,    -4.742,    -3.907,    -3.096,    -2.298,    -1.513,    -0.737,     0.030,     0.782,     1.521,     2.241,     2.944,     3.624,     4.298,     4.961,     5.614,     6.255,     6.883,     7.495,     8.092,     8.675,     9.253,     9.814,    10.368,    10.917,    11.455,    11.986,    12.512,    13.036,    13.549,    14.053,
     0.150,   -20.682,   -19.694,   -18.701,   -17.716,   -16.725,   -15.747,   -14.775,   -13.809,   -12.858,   -11.915,   -10.975,   -10.043,    -9.128,    -8.225,    -7.333,    -6.459,    -5.602,    -4.758,    -3.922,    -3.107,    -2.304,    -1.514,    -0.737,     0.023,     0.768,     1.505,     2.228,     2.931,     3.618,     4.300,     4.968,     5.625,     6.269,     6.905,     7.525,     8.124,     8.711,     9.294,     9.863,    10.424,    10.978,    11.524,    12.061,    12.597,    13.124,    13.638,    14.144,
     0.000,   -20.795,   -19.800,   -18.804,   -17.815,   -16.829,   -15.845,   -14.865,   -13.896,   -12.940,   -11.991,   -11.055,   -10.123,    -9.196,    -8.287,    -7.393,    -6.515,    -5.650,    -4.796,    -3.954,    -3.132,    -2.329,    -1.537,    -0.761,     0.000,     0.751,     1.489,     2.214,     2.921,     3.615,     4.305,     4.982,     5.640,     6.290,     6.928,     7.549,     8.151,     8.744,     9.334,     9.911,    10.480,    11.038,    11.589,    12.137,    12.678,    13.209,    13.727,    14.243,
    -0.150,   -20.920,   -19.918,   -18.917,   -17.925,   -16.934,   -15.948,   -14.971,   -13.995,   -13.030,   -12.081,   -11.136,   -10.200,    -9.273,    -8.363,    -7.474,    -6.592,    -5.720,    -4.857,    -4.009,    -3.177,    -2.369,    -1.578,    -0.802,    -0.035,     0.718,     1.457,     2.183,     2.898,     3.596,     4.288,     4.964,     5.627,     6.283,     6.927,     7.552,     8.161,     8.763,     9.360,     9.941,    10.514,    11.078,    11.629,    12.181,    12.727,    13.265,    13.794,    14.322,
    -0.300,   -21.039,   -20.030,   -19.035,   -18.037,   -17.040,   -16.052,   -15.070,   -14.092,   -13.128,   -12.170,   -11.219,   -10.284,    -9.361,    -8.443,    -7.543,    -6.656,    -5.785,    -4.920,    -4.069,    -3.232,    -2.419,    -1.625,    -0.850,    -0.084,     0.662,     1.398,     2.126,     2.846,     3.550,     4.243,     4.917,     5.594,     6.253,     6.903,     7.537,     8.155,     8.759,     9.357,     9.944,    10.523,    11.096,    11.658,    12.211,    12.756,    13.297,    13.833,    14.368,
    -0.450,   -21.152,   -20.142,   -19.145,   -18.139,   -17.139,   -16.149,   -15.162,   -14.183,   -13.213,   -12.250,   -11.299,   -10.360,    -9.432,    -8.509,    -7.609,    -6.723,    -5.848,    -4.980,    -4.124,    -3.285,    -2.474,    -1.680,    -0.907,    -0.154,     0.580,     1.313,     2.042,     2.763,     3.470,     4.168,     4.850,     5.524,     6.189,     6.844,     7.486,     8.109,     8.718,     9.321,     9.912,    10.496,    11.076,    11.645,    12.203,    12.758,    13.300,    13.842,    14.384,
    -0.600,   -21.270,   -20.266,   -19.257,   -18.253,   -17.249,   -16.255,   -15.267,   -14.283,   -13.311,   -12.350,   -11.394,   -10.448,    -9.517,    -8.596,    -7.692,    -6.806,    -5.922,    -5.048,    -4.197,    -3.361,    -2.549,    -1.756,    -0.986,    -0.241,     0.489,     1.216,     1.936,     2.654,     3.366,     4.068,     4.755,     5.428,     6.096,     6.753,     7.395,     8.025,     8.644,     9.252,     9.853,    10.445,    11.026,    11.603,    12.164,    12.728,    13.279,    13.826,    14.372,
    -0.750,   -21.393,   -20.385,   -19.370,   -18.366,   -17.359,   -16.366,   -15.372,   -14.389,   -13.417,   -12.452,   -11.491,   -10.541,    -9.612,    -8.691,    -7.784,    -6.896,    -6.010,    -5.135,    -4.285,    -3.446,    -2.636,    -1.841,    -1.079,    -0.344,     0.377,     1.099,     1.820,     2.531,     3.243,     3.945,     4.637,     5.313,     5.978,     6.637,     7.289,     7.925,     8.546,     9.160,     9.767,    10.366,    10.957,    11.539,    12.107,    12.674,    13.232,    13.788,    14.336,
    -0.900,   -21.507,   -20.495,   -19.481,   -18.474,   -17.470,   -16.475,   -15.479,   -14.499,   -13.521,   -12.548,   -11.587,   -10.639,    -9.706,    -8.784,    -7.878,    -6.987,    -6.101,    -5.228,    -4.370,    -3.533,    -2.732,    -1.950,    -1.198,    -0.466,     0.253,     0.971,     1.690,     2.399,     3.113,     3.809,     4.500,     5.173,     5.838,     6.501,     7.164,     7.803,     8.432,     9.052,     9.664,    10.265,    10.860,    11.448,    12.032,    12.604,    13.170,    13.735,    14.295,
    -1.050,   -21.624,   -20.610,   -19.591,   -18.582,   -17.576,   -16.579,   -15.585,   -14.600,   -13.616,   -12.645,   -11.686,   -10.739,    -9.806,    -8.888,    -7.979,    -7.080,    -6.188,    -5.320,    -4.469,    -3.641,    -2.845,    -2.073,    -1.325,    -0.594,     0.123,     0.838,     1.544,     2.247,     2.959,     3.650,     4.338,     5.013,     5.685,     6.350,     7.013,     7.655,     8.290,     8.915,     9.531,    10.139,    10.740,    11.337,    11.926,    12.504,    13.078,    13.654,    14.227,
    -1.200,   -21.734,   -20.720,   -19.700,   -18.693,   -17.684,   -16.691,   -15.692,   -14.704,   -13.720,   -12.749,   -11.788,   -10.844,    -9.913,    -8.995,    -8.082,    -7.184,    -6.298,    -5.432,    -4.583,    -3.760,    -2.969,    -2.202,    -1.461,    -0.733,    -0.024,     0.684,     1.386,     2.084,     2.788,     3.482,     4.168,     4.846,     5.513,     6.185,     6.847,     7.496,     8.137,     8.771,     9.389,    10.005,    10.608,    11.210,    11.804,    12.387,    12.970,    13.552,    14.137,
    -1.350,   -21.840,   -20.832,   -19.813,   -18.804,   -17.796,   -16.798,   -15.800,   -14.814,   -13.834,   -12.864,   -11.909,   -10.961,   -10.023,    -9.103,    -8.194,    -7.300,    -6.412,    -5.548,    -4.703,    -3.893,    -3.110,    -2.351,    -1.613,    -0.889,    -0.183,     0.523,     1.225,     1.916,     2.608,     3.299,     3.987,     4.671,     5.340,     6.006,     6.666,     7.322,     7.970,     8.609,     9.234,     9.857,    10.466,    11.072,    11.673,    12.264,    12.856,    13.442,    14.037,
    -1.500,   -21.937,   -20.933,   -19.918,   -18.911,   -17.905,   -16.901,   -15.909,   -14.918,   -13.940,   -12.977,   -12.018,   -11.069,   -10.133,    -9.216,    -8.311,    -7.413,    -6.531,    -5.675,    -4.842,    -4.044,    -3.268,    -2.512,    -1.772,    -1.053,    -0.355,     0.345,     1.041,     1.729,     2.412,     3.097,     3.783,     4.466,     5.142,     5.808,     6.467,     7.124,     7.777,     8.441,     9.079,     9.693,    10.314,    10.922,    11.523,    12.123,    12.716,    13.310,    13.913,
    -1.650,   -22.036,   -21.025,   -20.016,   -19.015,   -18.010,   -17.013,   -16.022,   -15.032,   -14.058,   -13.092,   -12.132,   -11.186,   -10.256,    -9.337,    -8.433,    -7.539,    -6.668,    -5.821,    -4.997,    -4.206,    -3.430,    -2.675,    -1.940,    -1.231,    -0.539,     0.155,     0.847,     1.533,     2.215,     2.896,     3.580,     4.265,     4.934,     5.601,     6.263,     6.921,     7.573,     8.231,     8.878,     9.506,    10.135,    10.752,    11.361,    11.967,    12.564,    13.168,    13.784,
    -1.800,   -22.133,   -21.120,   -20.117,   -19.113,   -18.110,   -17.118,   -16.129,   -15.150,   -14.175,   -13.205,   -12.249,   -11.305,   -10.377,    -9.463,    -8.561,    -7.676,    -6.816,    -5.973,    -5.148,    -4.365,    -3.597,    -2.849,    -2.124,    -1.423,    -0.730,    -0.041,     0.644,     1.323,     2.005,     2.687,     3.363,     4.043,     4.713,     5.380,     6.046,     6.705,     7.350,     8.003,     8.659,     9.299,     9.935,    10.565,    11.184,    11.798,    12.406,    13.019,    13.639,
    -1.950,   -22.215,   -21.215,   -20.213,   -19.210,   -18.210,   -17.218,   -16.238,   -15.262,   -14.284,   -13.320,   -12.369,   -11.423,   -10.499,    -9.592,    -8.697,    -7.820,    -6.969,    -6.134,    -5.318,    -4.538,    -3.780,    -3.035,    -2.315,    -1.623,    -0.936,    -0.251,     0.428,     1.101,     1.781,     2.458,     3.133,     3.806,     4.475,     5.143,     5.810,     6.472,     7.121,     7.771,     8.424,     9.070,     9.716,    10.354,    10.987,    11.610,    12.229,    12.853,    13.469,
    -2.100,   -22.301,   -21.307,   -20.306,   -19.308,   -18.307,   -17.325,   -16.347,   -15.368,   -14.395,   -13.437,   -12.488,   -11.548,   -10.631,    -9.723,    -8.836,    -7.971,    -7.128,    -6.300,    -5.494,    -4.712,    -3.961,    -3.227,    -2.514,    -1.824,    -1.145,    -0.467,     0.208,     0.882,     1.555,     2.224,     2.900,     3.569,     4.236,     4.901,     5.565,     6.230,     6.885,     7.534,     8.188,     8.836,     9.483,    10.129,    10.769,    11.405,    12.034,    12.663,    13.291,
    -2.250,   -22.392,   -21.385,   -20.394,   -19.398,   -18.404,   -17.430,   -16.451,   -15.482,   -14.515,   -13.560,   -12.618,   -11.690,   -10.771,    -9.864,    -8.986,    -8.133,    -7.294,    -6.469,    -5.672,    -4.898,    -4.154,    -3.427,    -2.720,    -2.033,    -1.362,    -0.688,    -0.015,     0.655,     1.323,     1.988,     2.658,     3.321,     3.991,     4.654,     5.314,     5.979,     6.634,     7.283,     7.939,     8.589,     9.242,     9.898,    10.546,    11.193,    11.837,    12.478,    13.116,
    -2.400,   -22.461,   -21.467,   -20.485,   -19.490,   -18.505,   -17.531,   -16.561,   -15.602,   -14.637,   -13.684,   -12.747,   -11.824,   -10.914,   -10.025,    -9.153,    -8.302,    -7.464,    -6.651,    -5.863,    -5.097,    -4.358,    -3.637,    -2.938,    -2.254,    -1.590,    -0.922,    -0.250,     0.415,     1.081,     1.739,     2.407,     3.068,     3.733,     4.393,     5.052,     5.717,     6.377,     7.030,     7.685,     8.337,     8.992,     9.652,    10.310,    10.964,    11.618,    12.276,    12.926,
    -2.550,   -22.525,   -21.546,   -20.563,   -19.581,   -18.604,   -17.635,   -16.669,   -15.707,   -14.750,   -13.807,   -12.875,   -11.955,   -11.056,   -10.180,    -9.318,    -8.476,    -7.649,    -6.846,    -6.063,    -5.303,    -4.570,    -3.854,    -3.159,    -2.477,    -1.816,    -1.156,    -0.495,     0.168,     0.832,     1.485,     2.148,     2.812,     3.468,     4.124,     4.787,     5.449,     6.109,     6.765,     7.421,     8.078,     8.736,     9.398,    10.058,    10.723,    11.384,    12.052,    12.717,
