Thorlabs Shack-Hartmann Wavefront Sensor

Model                  ,       WFS20-5C
Serial Number          ,       M00578372

Date MM-DD-YYYY        ,       07-16-2024
Time HH:MM:SS          ,       16:20:46


*** CAMERA ***
Camera Type            ,       Thorlabs WFS20
Camera SN              ,       742
Resolution X           ,       1440
Resolution Y           ,       1080
Exposure Time [ms]     ,       0.040
Master Gain            ,       1.000
Averages               ,       1
Average Type           ,       Normal


*** BEAM ***
Beam Center X [mm]     ,       0.035
Beam Center Y [mm]     ,      -1.009
Beam Diameter X [mm]   ,       7.337
Beam Diameter Y [mm]   ,       4.924


*** PUPIL ***
Circular               ,       1
Use Beam Centroid      ,       0
Use Beam Dia           ,       0
Wavefront Calc In Pupil,       0
Pupil Diameter X [mm]  ,       5.304
Pupil Diameter Y [mm]  ,       5.304
Pupil Center X [mm]    ,       0.000
Pupil Center Y [mm]    ,       0.000


*** ZERNIKE FIT ***
Zernike Orders Auto    ,       0
Zernike Orders         ,       4
Zernike Modes          ,       15
Unit                   ,       µm
Index  Order  Frequency  Coefficient
   1,     0,     0,       -7.022
   2,     1,    -1,        1.205
   3,     1,     1,        6.915
   4,     2,    -2,       -0.270
   5,     2,     0,        0.699
   6,     2,     2,       -1.089
   7,     3,    -3,        0.111
   8,     3,    -1,       -0.468
   9,     3,     1,        0.003
  10,     3,     3,       -0.126
  11,     4,    -4,        0.055
  12,     4,    -2,        0.005
  13,     4,     0,        0.055
  14,     4,     2,       -0.031
  15,     4,     4,       -0.041

Fit Error Mean [arcmin]  ,   7.360e-11
Fit Error StdDev [arcmin],   2.283e-03


*** RMS WAVEFRONT VARIATIONS ***
Unit                   ,       µm
Order  Variation
   0,      7.022
   1,      7.019
   2,      1.322
   3,      0.498
   4,      0.093


*** FOURIER NOTATION ***
Fourier Order          ,       2
Fourier M              ,      -0.688
Fourier J0             ,       0.759
Fourier J45            ,       0.188


*** OPTOMETRIC NOTATION ***
Optometric Sphere [dpt],       0.094
Optometric Cyl. [dpt]  ,      -1.563
Optometric Axis [deg]  ,       6.968

Radius of Curvature[mm],    -1453.310


*** WAVEFRONT ***
Reference              ,       Internal Reference
Unit                   ,       µm
Wavelength [nm]        ,        633.000
Type                   ,       Measured
Calculation Area       ,       entire area
PV                     ,      45.942
RMS                    ,      10.416
RMS weighted           ,       9.304
Spots X                ,       47
Spots Y                ,       35
y / x [mm],    -3.450,    -3.300,    -3.150,    -3.000,    -2.850,    -2.700,    -2.550,    -2.400,    -2.250,    -2.100,    -1.950,    -1.800,    -1.650,    -1.500,    -1.350,    -1.200,    -1.050,    -0.900,    -0.750,    -0.600,    -0.450,    -0.300,    -0.150,     0.000,     0.150,     0.300,     0.450,     0.600,     0.750,     0.900,     1.050,     1.200,     1.350,     1.500,     1.650,     1.800,     1.950,     2.100,     2.250,     2.400,     2.550,     2.700,     2.850,     3.000,     3.150,     3.300,     3.450,
     2.550,       NaN,       NaN,       NaN,       NaN,       NaN,       NaN,   -23.308,   -21.443,   -18.957,   -17.389,   -15.715,   -14.113,   -12.662,   -11.204,    -9.721,    -8.129,    -6.433,    -4.466,    -2.539,    -0.969,     0.602,     2.129,     3.618,     5.076,     5.958,     6.700,     7.474,     8.250,     9.090,     9.840,    10.547,    11.141,    11.668,    12.312,    12.934,    13.549,    14.084,    14.635,    15.299,    15.985,    16.698,    17.347,    17.980,    18.569,    19.036,       NaN,       NaN,
     2.400,       NaN,       NaN,       NaN,       NaN,       NaN,       NaN,   -16.616,   -15.213,   -13.361,   -12.273,   -10.919,    -9.501,    -8.410,    -7.358,    -6.318,    -5.230,    -4.096,    -2.951,    -1.814,    -0.747,     0.427,     1.506,     2.546,     3.649,     4.479,     5.301,     6.197,     7.114,     8.095,     8.928,     9.806,    10.681,    11.467,    12.268,    13.038,    13.819,    14.487,    15.220,    16.020,    16.765,    17.487,    18.073,    18.673,    19.297,    19.951,    19.635,    20.332,
     2.250,       NaN,       NaN,       NaN,       NaN,       NaN,       NaN,    -9.835,    -9.241,    -8.809,    -8.399,    -7.506,    -6.560,    -5.862,    -5.178,    -4.518,    -3.839,    -3.094,    -2.336,    -1.633,    -1.003,    -0.263,     0.471,     1.224,     2.032,     2.831,     3.681,     4.532,     5.429,     6.395,     7.285,     8.309,     9.466,    10.585,    11.602,    12.587,    13.551,    14.499,    15.405,    16.255,    16.979,    17.681,    18.246,    18.857,    19.507,    20.225,    19.999,    20.951,
     2.100,   -13.191,   -11.534,   -10.217,    -9.101,    -8.297,    -7.544,    -6.847,    -6.469,    -6.394,    -6.792,    -6.692,    -6.288,    -5.930,    -5.490,    -5.058,    -4.628,    -4.126,    -3.594,    -2.997,    -2.322,    -1.598,    -0.852,    -0.083,     0.732,     1.534,     2.351,     3.188,     4.037,     4.914,     5.860,     6.813,     7.817,     8.869,     9.873,    10.927,    12.079,    13.303,    14.378,    15.310,    16.199,    17.078,    17.898,    18.832,    19.706,    20.590,    21.330,    21.971,
     1.950,   -13.098,   -11.725,   -10.774,   -10.015,    -9.590,    -9.175,    -8.731,    -8.541,    -8.380,    -8.176,    -7.926,    -7.652,    -7.289,    -6.762,    -6.221,    -5.668,    -5.047,    -4.425,    -3.760,    -3.059,    -2.336,    -1.585,    -0.815,    -0.017,     0.794,     1.612,     2.435,     3.262,     4.085,     4.950,     5.789,     6.667,     7.577,     8.484,     9.425,    10.461,    11.612,    12.737,    13.787,    14.957,    16.145,    17.230,    18.562,    19.819,    20.913,    21.837,    22.634,
     1.800,   -13.047,   -11.823,   -11.083,   -10.580,   -10.416,   -10.341,   -10.130,    -9.989,    -9.768,    -9.407,    -8.975,    -8.507,    -8.013,    -7.445,    -6.869,    -6.266,    -5.632,    -4.977,    -4.281,    -3.589,    -2.858,    -2.095,    -1.326,    -0.533,     0.273,     1.081,     1.877,     2.690,     3.496,     4.320,     5.139,     5.992,     6.841,     7.706,     8.564,     9.451,    10.417,    11.387,    12.476,    13.702,    14.910,    16.203,    17.817,    19.255,    20.373,    21.361,    22.095,
     1.650,   -13.252,   -12.457,   -12.008,   -11.787,   -11.688,   -11.589,   -11.323,   -10.959,   -10.534,   -10.080,    -9.589,    -9.063,    -8.505,    -7.913,    -7.305,    -6.674,    -6.030,    -5.351,    -4.644,    -3.948,    -3.210,    -2.442,    -1.675,    -0.891,    -0.091,     0.709,     1.490,     2.287,     3.078,     3.881,     4.683,     5.499,     6.321,     7.137,     7.964,     8.820,     9.721,    10.649,    11.615,    12.609,    13.612,    14.762,    16.103,    17.413,    18.752,    20.054,    21.116,
     1.500,   -13.333,   -13.224,   -13.181,   -13.073,   -12.756,   -12.393,   -11.991,   -11.551,   -11.069,   -10.560,   -10.011,    -9.448,    -8.856,    -8.232,    -7.594,    -6.943,    -6.281,    -5.592,    -4.882,    -4.178,    -3.447,    -2.683,    -1.908,    -1.128,    -0.338,     0.445,     1.225,     2.007,     2.794,     3.576,     4.367,     5.147,     5.943,     6.739,     7.555,     8.387,     9.243,    10.120,    11.014,    11.939,    12.883,    13.867,    14.950,    16.105,    17.461,    18.841,    20.304,
     1.350,   -14.546,   -14.470,   -14.161,   -13.818,   -13.408,   -12.955,   -12.479,   -11.975,   -11.436,   -10.873,   -10.282,    -9.691,    -9.073,    -8.430,    -7.778,    -7.105,    -6.425,    -5.733,    -5.020,    -4.305,    -3.572,    -2.812,    -2.040,    -1.266,    -0.486,     0.291,     1.068,     1.844,     2.622,     3.381,     4.152,     4.920,     5.701,     6.483,     7.272,     8.083,     8.898,     9.730,    10.585,    11.465,    12.366,    13.299,    14.279,    15.305,    16.393,    17.575,    19.005,
     1.200,   -15.510,   -15.190,   -14.794,   -14.350,   -13.870,   -13.361,   -12.826,   -12.271,   -11.693,   -11.089,   -10.477,    -9.843,    -9.195,    -8.539,    -7.866,    -7.174,    -6.486,    -5.783,    -5.062,    -4.342,    -3.610,    -2.863,    -2.099,    -1.326,    -0.547,     0.228,     0.994,     1.764,     2.530,     3.290,     4.044,     4.798,     5.558,     6.319,     7.087,     7.873,     8.665,     9.474,    10.297,    11.139,    12.002,    12.898,    13.818,    14.757,    15.752,    16.826,    17.982,
     1.050,   -16.139,   -15.729,   -15.275,   -14.761,   -14.229,   -13.661,   -13.075,   -12.477,   -11.863,   -11.231,   -10.582,    -9.920,    -9.254,    -8.578,    -7.888,    -7.186,    -6.485,    -5.768,    -5.044,    -4.319,    -3.582,    -2.838,    -2.079,    -1.313,    -0.541,     0.230,     0.994,     1.758,     2.515,     3.260,     3.999,     4.741,     5.485,     6.233,     6.991,     7.756,     8.531,     9.319,    10.117,    10.935,    11.770,    12.624,    13.502,    14.403,    15.353,    16.343,    17.395,
     0.900,   -16.616,   -16.135,   -15.633,   -15.064,   -14.494,   -13.881,   -13.250,   -12.614,   -11.963,   -11.301,   -10.623,    -9.940,    -9.254,    -8.563,    -7.854,    -7.139,    -6.425,    -5.702,    -4.970,    -4.236,    -3.500,    -2.758,    -2.001,    -1.237,    -0.469,     0.297,     1.051,     1.799,     2.540,     3.273,     4.010,     4.742,     5.480,     6.222,     6.970,     7.723,     8.478,     9.241,    10.020,    10.817,    11.618,    12.442,    13.291,    14.163,    15.070,    16.017,    17.006,
     0.750,   -16.983,   -16.447,   -15.890,   -15.283,   -14.662,   -14.015,   -13.357,   -12.690,   -12.008,   -11.312,   -10.613,    -9.910,    -9.203,    -8.490,    -7.765,    -7.045,    -6.320,    -5.583,    -4.844,    -4.107,    -3.370,    -2.631,    -1.874,    -1.113,    -0.354,     0.401,     1.146,     1.883,     2.617,     3.348,     4.082,     4.808,     5.539,     6.271,     7.007,     7.746,     8.491,     9.235,     9.996,    10.773,    11.555,    12.355,    13.180,    14.024,    14.894,    15.803,    16.743,
     0.600,   -17.270,   -16.680,   -16.070,   -15.436,   -14.773,   -14.104,   -13.416,   -12.715,   -12.000,   -11.288,   -10.564,    -9.838,    -9.105,    -8.371,    -7.644,    -6.908,    -6.172,    -5.429,    -4.687,    -3.943,    -3.197,    -2.460,    -1.708,    -0.955,    -0.197,     0.550,     1.290,     2.029,     2.755,     3.476,     4.199,     4.919,     5.642,     6.370,     7.098,     7.829,     8.560,     9.291,    10.042,    10.803,    11.568,    12.349,    13.153,    13.976,    14.816,    15.691,    16.587,
     0.450,   -17.484,   -16.852,   -16.198,   -15.530,   -14.847,   -14.149,   -13.427,   -12.698,   -11.964,   -11.230,   -10.483,    -9.736,    -8.988,    -8.239,    -7.493,    -6.747,    -6.002,    -5.251,    -4.497,    -3.747,    -2.999,    -2.262,    -1.514,    -0.760,    -0.003,     0.740,     1.475,     2.204,     2.923,     3.643,     4.363,     5.081,     5.800,     6.524,     7.244,     7.967,     8.690,     9.416,    10.151,    10.899,    11.652,    12.420,    13.202,    14.000,    14.814,    15.659,    16.521,
     0.300,   -17.640,   -16.974,   -16.290,   -15.590,   -14.874,   -14.145,   -13.401,   -12.657,   -11.903,   -11.140,   -10.370,    -9.600,    -8.838,    -8.076,    -7.323,    -6.562,    -5.796,    -5.035,    -4.278,    -3.525,    -2.775,    -2.031,    -1.280,    -0.529,     0.216,     0.951,     1.684,     2.414,     3.132,     3.856,     4.578,     5.294,     6.009,     6.722,     7.435,     8.148,     8.863,     9.581,    10.305,    11.041,    11.782,    12.537,    13.303,    14.086,    14.887,    15.702,    16.532,
     0.150,   -17.748,   -17.055,   -16.342,   -15.609,   -14.864,   -14.109,   -13.350,   -12.581,   -11.812,   -11.030,   -10.242,    -9.455,    -8.670,    -7.893,    -7.118,    -6.342,    -5.570,    -4.802,    -4.035,    -3.275,    -2.523,    -1.774,    -1.020,    -0.275,     0.466,     1.207,     1.943,     2.670,     3.390,     4.111,     4.826,     5.536,     6.244,     6.950,     7.659,     8.369,     9.075,     9.790,    10.509,    11.238,    11.971,    12.715,    13.469,    14.238,    15.016,    15.802,    16.604,
     0.000,   -17.820,   -17.092,   -16.346,   -15.595,   -14.833,   -14.061,   -13.272,   -12.478,   -11.690,   -10.895,   -10.100,    -9.298,    -8.491,    -7.693,    -6.901,    -6.113,    -5.330,    -4.549,    -3.773,    -3.006,    -2.249,    -1.500,    -0.752,     0.000,     0.748,     1.491,     2.224,     2.947,     3.670,     4.388,     5.100,     5.811,     6.519,     7.223,     7.928,     8.633,     9.339,    10.050,    10.764,    11.483,    12.204,    12.936,    13.677,    14.424,    15.182,    15.950,    16.736,
    -0.150,   -17.847,   -17.090,   -16.323,   -15.549,   -14.765,   -13.971,   -13.161,   -12.354,   -11.536,   -10.730,    -9.918,    -9.100,    -8.283,    -7.475,    -6.675,    -5.880,    -5.082,    -4.292,    -3.504,    -2.728,    -1.967,    -1.210,    -0.458,     0.292,     1.037,     1.777,     2.517,     3.250,     3.973,     4.693,     5.405,     6.115,     6.822,     7.526,     8.225,     8.920,     9.623,    10.329,    11.037,    11.744,    12.456,    13.170,    13.897,    14.629,    15.370,    16.125,    16.896,
    -0.300,   -17.834,   -17.055,   -16.263,   -15.465,   -14.651,   -13.836,   -13.014,   -12.184,   -11.355,   -10.533,    -9.706,    -8.878,    -8.052,    -7.230,    -6.415,    -5.611,    -4.810,    -4.007,    -3.209,    -2.420,    -1.654,    -0.892,    -0.141,     0.598,     1.337,     2.075,     2.818,     3.559,     4.287,     5.007,     5.719,     6.427,     7.131,     7.830,     8.529,     9.219,     9.912,    10.609,    11.308,    12.008,    12.712,    13.417,    14.134,    14.852,    15.579,    16.318,    17.072,
    -0.450,   -17.781,   -16.979,   -16.162,   -15.338,   -14.496,   -13.664,   -12.820,   -11.979,   -11.135,   -10.293,    -9.452,    -8.613,    -7.776,    -6.945,    -6.126,    -5.313,    -4.499,    -3.687,    -2.882,    -2.094,    -1.324,    -0.561,     0.186,     0.919,     1.652,     2.383,     3.116,     3.849,     4.576,     5.293,     6.009,     6.715,     7.419,     8.118,     8.820,     9.514,    10.201,    10.889,    11.582,    12.278,    12.974,    13.672,    14.374,    15.082,    15.795,    16.523,    17.261,
    -0.600,   -17.698,   -16.876,   -16.033,   -15.182,   -14.321,   -13.469,   -12.613,   -11.755,   -10.892,   -10.037,    -9.181,    -8.332,    -7.484,    -6.649,    -5.821,    -4.996,    -4.173,    -3.357,    -2.553,    -1.763,    -0.985,    -0.220,     0.523,     1.247,     1.964,     2.686,     3.413,     4.143,     4.874,     5.592,     6.307,     7.017,     7.720,     8.421,     9.117,     9.809,    10.497,    11.179,    11.869,    12.558,    13.243,    13.933,    14.625,    15.325,    16.024,    16.738,    17.460,
    -0.750,   -17.576,   -16.729,   -15.866,   -14.996,   -14.120,   -13.254,   -12.382,   -11.509,   -10.634,    -9.763,    -8.902,    -8.042,    -7.187,    -6.340,    -5.503,    -4.672,    -3.847,    -3.020,    -2.209,    -1.411,    -0.636,     0.121,     0.857,     1.577,     2.288,     3.009,     3.735,     4.457,     5.181,     5.896,     6.609,     7.319,     8.013,     8.710,     9.402,    10.092,    10.775,    11.455,    12.143,    12.825,    13.505,    14.188,    14.870,    15.559,    16.250,    16.949,    17.659,
    -0.900,   -17.426,   -16.555,   -15.670,   -14.786,   -13.900,   -13.012,   -12.124,   -11.242,   -10.355,    -9.472,    -8.603,    -7.731,    -6.863,    -6.007,    -5.166,    -4.330,    -3.498,    -2.667,    -1.852,    -1.058,    -0.292,     0.459,     1.192,     1.908,     2.617,     3.329,     4.047,     4.762,     5.478,     6.193,     6.902,     7.609,     8.303,     9.000,     9.692,    10.378,    11.055,    11.734,    12.416,    13.093,    13.771,    14.450,    15.126,    15.807,    16.491,    17.177,    17.876,
    -1.050,   -17.250,   -16.358,   -15.456,   -14.556,   -13.652,   -12.750,   -11.854,   -10.956,   -10.057,    -9.164,    -8.279,    -7.398,    -6.530,    -5.670,    -4.816,    -3.970,    -3.130,    -2.303,    -1.494,    -0.703,     0.064,     0.813,     1.542,     2.249,     2.950,     3.655,     4.364,     5.073,     5.785,     6.500,     7.201,     7.904,     8.603,     9.295,     9.987,    10.671,    11.347,    12.021,    12.695,    13.368,    14.039,    14.709,    15.383,    16.056,    16.736,    17.413,    18.103,
    -1.200,   -17.052,   -16.139,   -15.226,   -14.307,   -13.394,   -12.484,   -11.573,   -10.658,    -9.747,    -8.845,    -7.950,    -7.063,    -6.190,    -5.318,    -4.458,    -3.610,    -2.766,    -1.938,    -1.128,    -0.342,     0.423,     1.167,     1.890,     2.594,     3.294,     3.996,     4.696,     5.395,     6.097,     6.804,     7.503,     8.199,     8.885,     9.576,    10.266,    10.946,    11.623,    12.298,    12.965,    13.633,    14.296,    14.960,    15.630,    16.295,    16.968,    17.642,    18.328,
    -1.350,   -16.837,   -15.910,   -14.980,   -14.047,   -13.125,   -12.198,   -11.273,   -10.347,    -9.425,    -8.518,    -7.617,    -6.718,    -5.836,    -4.960,    -4.095,    -3.244,    -2.396,    -1.571,    -0.764,     0.015,     0.775,     1.516,     2.234,     2.931,     3.627,     4.323,     5.018,     5.708,     6.402,     7.099,     7.798,     8.500,     9.185,     9.869,    10.550,    11.228,    11.905,    12.576,    13.240,    13.904,    14.560,    15.216,    15.879,    16.540,    17.206,    17.873,    18.553,
    -1.500,   -16.601,   -15.659,   -14.714,   -13.776,   -12.837,   -11.897,   -10.961,   -10.024,    -9.097,    -8.178,    -7.264,    -6.359,    -5.474,    -4.595,    -3.726,    -2.870,    -2.026,    -1.207,    -0.409,     0.372,     1.131,     1.866,     2.579,     3.266,     3.956,     4.648,     5.340,     6.027,     6.716,     7.405,     8.097,     8.788,     9.474,    10.157,    10.834,    11.508,    12.183,    12.871,    13.541,    14.187,    14.838,    15.484,    16.135,    16.790,    17.447,    18.108,    18.778,
    -1.650,   -16.351,   -15.396,   -14.442,   -13.490,   -12.537,   -11.587,   -10.640,    -9.695,    -8.759,    -7.829,    -6.913,    -6.004,    -5.108,    -4.220,    -3.358,    -2.503,    -1.664,    -0.846,    -0.050,     0.728,     1.482,     2.211,     2.919,     3.606,     4.294,     4.979,     5.666,     6.348,     7.026,     7.706,     8.393,     9.077,     9.753,    10.427,    11.097,    11.773,    12.442,    13.120,    13.788,    14.436,    15.085,    15.733,    16.378,    17.026,    17.675,    18.329,    18.997,
    -1.800,   -16.092,   -15.126,   -14.157,   -13.193,   -12.228,   -11.266,   -10.309,    -9.357,    -8.413,    -7.480,    -6.559,    -5.642,    -4.743,    -3.858,    -2.992,    -2.132,    -1.299,    -0.487,     0.309,     1.080,     1.827,     2.554,     3.259,     3.945,     4.625,     5.300,     5.977,     6.653,     7.328,     8.006,     8.680,     9.356,    10.026,    10.699,    11.367,    12.035,    12.698,    13.363,    14.028,    14.679,    15.325,    15.969,    16.612,    17.253,    17.895,    18.540,    19.198,
    -1.950,   -15.818,   -14.844,   -13.865,   -12.887,   -11.911,   -10.941,    -9.973,    -9.011,    -8.066,    -7.126,    -6.195,    -5.278,    -4.380,    -3.492,    -2.622,    -1.766,    -0.939,    -0.134,     0.662,     1.431,     2.174,     2.897,     3.598,     4.281,     4.953,     5.623,     6.294,     6.966,     7.637,     8.306,     8.975,     9.644,    10.305,    10.971,    11.636,    12.299,    12.959,    13.620,    14.274,    14.925,    15.568,    16.206,    16.847,    17.485,    18.121,    18.760,    19.400,
    -2.100,   -15.540,   -14.551,   -13.559,   -12.572,   -11.590,   -10.609,    -9.633,    -8.670,    -7.716,    -6.769,    -5.837,    -4.917,    -4.014,    -3.125,    -2.259,    -1.411,    -0.586,     0.223,     1.015,     1.785,     2.521,     3.236,     3.932,     4.613,     5.283,     5.948,     6.613,     7.275,     7.934,     8.591,     9.255,     9.917,    10.575,    11.229,    11.891,    12.546,    13.198,    13.854,    14.501,    15.149,    15.792,    16.426,    17.064,    17.702,    18.339,    18.974,    19.614,
    -2.250,   -15.262,   -14.253,   -13.251,   -12.258,   -11.264,   -10.278,    -9.298,    -8.326,    -7.364,    -6.417,    -5.483,    -4.561,    -3.658,    -2.774,    -1.909,    -1.061,    -0.236,     0.571,     1.356,     2.120,     2.852,     3.564,     4.258,     4.933,     5.596,     6.255,     6.913,     7.566,     8.219,     8.870,     9.529,    10.182,    10.837,    11.488,    12.142,    12.788,    13.432,    14.073,    14.717,    15.360,    16.001,    16.633,    17.267,    17.901,    18.535,    19.167,    19.811,
    -2.400,   -14.974,   -13.960,   -12.949,   -11.942,   -10.937,    -9.947,    -8.963,    -7.988,    -7.022,    -6.074,    -5.136,    -4.217,    -3.314,    -2.427,    -1.563,    -0.721,     0.102,     0.904,     1.690,     2.450,     3.179,     3.888,     4.577,     5.243,     5.897,     6.554,     7.208,     7.856,     8.504,     9.151,     9.803,    10.452,    11.096,    11.744,    12.387,    13.027,    13.666,    14.304,    14.942,    15.579,    16.213,    16.841,    17.469,    18.097,    18.726,    19.352,    19.986,
    -2.550,   -14.682,   -13.660,   -12.638,   -11.622,   -10.614,    -9.616,    -8.627,    -7.652,    -6.681,    -5.732,    -4.795,    -3.877,    -2.975,    -2.090,    -1.228,    -0.393,     0.433,     1.237,     2.018,     2.772,     3.494,     4.200,     4.888,     5.553,     6.199,     6.851,     7.498,     8.138,     8.776,     9.415,    10.058,    10.700,    11.335,    11.974,    12.614,    13.249,    13.880,    14.514,    15.144,    15.777,    16.408,    17.037,    17.662,    18.286,    18.911,    19.534,    20.163,
